time (s)	coil I (A)	last det (V)	int current (uC)
4691.255815	3.265785	86.523437	-271.484375
4691.257816	3.266452	35.930973	0.377015
4692.313852	3.265501	163.476562	24.609375
4692.315851	3.266408	163.476562	24.609375
4692.317853	3.266406	35.930470	0.372266
4693.339870	3.264691	81.542969	-277.539062
4693.341870	3.266226	81.542969	-277.539062
4693.343872	3.266568	35.932251	0.379489
4694.397920	3.265818	163.183594	23.925781
4694.399922	3.266474	163.183594	23.925781
4694.401922	3.266671	35.933384	0.359791
4695.421928	3.266048	89.648437	-267.382812
4695.425929	3.266574	35.932312	0.391042
4696.477990	3.266583	161.523437	23.535156
4696.479994	3.266791	35.934696	0.367232
4697.502001	3.264974	83.789062	-274.023437
4697.504002	3.266447	83.789062	-274.023437
4697.506005	3.266809	35.934898	0.376769
4698.562073	3.265757	163.476562	23.339844
4698.564075	3.266450	35.930946	0.370710
4699.586114	3.266119	94.433594	-262.402344
4699.588116	3.266460	35.931061	0.447553
4700.646730	3.266522	162.597656	20.605469
4700.648733	3.266681	35.933491	0.363042
4701.670727	3.264860	80.664062	-277.929687
4701.672728	3.266398	80.664062	-277.929687
4701.674727	3.266390	35.930290	0.368956
4702.723202	3.265558	166.406250	22.558594
4702.725205	3.266612	166.406250	22.558594
4702.727205	3.266791	35.934704	0.370318
4703.753226	3.266252	96.777344	-256.054687
4703.755230	3.266594	35.932533	0.367818
4704.807746	3.265764	166.308594	24.218750
4704.809747	3.266492	166.308594	24.218750
4704.811747	3.266738	35.934120	0.378576
4705.839838	3.265920	93.847656	-257.910156
4705.841840	3.266470	35.931168	0.374575
4706.883868	3.263370	168.164062	28.808594
4706.885871	3.266128	168.164062	28.808594
4706.887872	3.266596	35.932552	0.389139
4707.921944	3.266040	91.503906	-264.550781
4707.923946	3.266465	35.931114	0.400799
4708.963983	3.264576	165.136719	30.468750
4708.967984	3.266619	165.136719	30.468750
4708.969987	3.266715	35.933865	0.376740
4710.006055	3.264822	90.136719	-270.214844
4710.008056	3.266348	90.136719	-270.214844
4710.010056	3.266284	35.929123	0.377538
4711.052101	3.266424	163.476562	28.808594
4711.054103	3.266989	35.936874	0.374576
4712.086659	3.265632	88.867187	-267.089844
4712.088662	3.266696	88.867187	-267.089844
4712.090662	3.266849	35.935333	0.390866
4713.134717	3.266231	162.890625	27.832031
4713.136720	3.266577	35.932346	0.364410
4714.167303	3.265693	79.296875	-275.878906
4714.169304	3.266400	35.930397	0.380011
4715.221387	3.265661	161.523437	23.535156
4715.223389	3.266475	161.523437	23.535156
4715.225390	3.266634	35.932976	0.361405
4716.247408	3.265041	88.867187	-266.503906
4716.249409	3.266279	88.867187	-266.503906
4716.251410	3.266593	35.932526	0.392854
4717.303945	2.472034	166.699219	23.437500
4717.305946	3.266397	166.699219	23.437500
4717.307945	3.266614	35.932755	0.365106
4718.330890	3.265862	85.449219	-272.851562
4718.332892	3.266558	35.932137	0.377409
4719.384919	3.264878	167.675781	21.484375
4719.386921	3.266309	167.675781	21.484375
4719.388919	3.266502	35.931522	0.375838
4720.412968	3.266040	87.695312	-268.554687
4720.414970	3.266595	35.932541	0.379103
4721.469019	3.266451	170.605469	24.414062
4721.471022	3.266803	35.934830	0.384472
4722.501071	3.266453	92.675781	-260.156250
4722.503075	3.266615	35.932762	0.375934
4723.549136	3.266568	170.605469	27.539062
4723.555135	3.266614	35.932755	0.429694
4724.579664	3.265848	96.777344	-256.835937
4724.581666	3.266660	96.777344	-256.835937
4724.583665	3.266787	35.934654	0.380664
4725.627730	3.266181	167.285156	28.027344
4725.629732	3.266644	35.933083	0.381722
4726.667774	3.266075	93.457031	-265.429687
4726.669777	3.266744	35.934181	0.373289
4727.711815	3.266082	167.871094	29.101562
4727.717814	3.266548	35.932026	0.449345
4728.748765	3.264632	88.964844	-271.191406
4728.750767	3.266283	88.964844	-271.191406
4728.752765	3.266523	35.931755	0.382545
4729.792801	3.266143	165.625000	27.148437
4729.794804	3.266646	35.933109	0.371806
4730.832861	3.267007	88.085937	-272.363281
4730.834863	3.267189	88.085937	-272.363281
4730.836863	3.267149	35.938637	0.383974
4731.876923	3.266497	166.503906	27.636719
4731.878926	3.266753	35.934280	0.377847
4732.915572	3.266807	98.046875	-259.570312
4732.917573	3.266943	35.936371	0.387456
4733.958160	3.265546	165.136719	25.878906
4733.960163	3.266673	165.136719	25.878906
4733.962163	3.266894	35.935837	0.373399
4734.996242	3.264859	88.964844	-271.289062
4734.998244	3.266415	88.964844	-271.289062
4735.000245	3.266718	35.933899	0.385765
4736.042279	3.265901	165.722656	25.585937
4736.044282	3.266434	35.930779	0.370443
4737.078358	3.265920	97.656250	-260.351562
4737.080361	3.266586	35.932446	0.381764
4738.124882	3.266556	167.089844	27.050781
4738.126884	3.266634	35.932976	0.464830
4739.161494	3.266193	89.257812	-271.289062
4739.163496	3.266666	35.933331	0.385446
4740.205531	3.264225	166.503906	25.781250
4740.207541	3.266420	166.503906	25.781250
4740.211548	3.266745	35.934200	0.377000
4741.243585	3.263368	84.570312	-276.757812
4741.245588	3.266451	84.570312	-276.757812
4741.247592	3.266502	35.931522	0.380990
4742.289597	3.266531	170.703125	26.953125
4742.291600	3.266686	35.933544	0.389533
4743.327606	3.266670	100.488281	-252.832031
4743.329609	3.266735	35.934082	0.382004
4744.370569	3.265168	172.753906	25.195312
4744.372570	3.266590	172.753906	25.195312
4744.374570	3.266826	35.935085	0.391524
4745.405101	3.263011	83.496094	-272.558594
4745.407103	3.266135	83.496094	-272.558594
4745.409103	3.266476	35.931240	0.383301
4746.455181	3.264643	171.582031	20.703125
4746.457185	3.266375	171.582031	20.703125
4746.459183	3.266758	35.934341	0.385263
4747.487243	3.266225	78.906250	-281.152344
4747.489243	3.266456	35.931019	0.713349
4748.539250	3.265030	171.679687	19.335937
4748.541256	3.266498	171.679687	19.335937
4748.543259	3.266745	35.934200	0.384607
4749.569807	3.266297	94.531250	-263.183594
4749.571809	3.266759	35.934349	0.385360
4750.624764	3.266362	170.214844	19.824219
4750.626766	3.266616	35.932774	0.710428
4751.653759	3.266679	91.113281	-266.406250
4751.655761	3.266867	35.935539	0.388551
4752.706766	3.265912	165.625000	19.140625
4752.708767	3.266877	165.625000	19.140625
4752.710767	3.267031	35.937340	0.372755
4753.732795	3.264801	83.984375	-271.875000
4753.734797	3.264895	83.984375	-271.875000
4753.736796	3.266864	35.935501	0.399997
4754.788926	3.266355	167.871094	23.046875
4754.792927	3.266713	35.933846	0.375955
4755.819902	3.266038	75.683594	-283.691406
4755.821903	3.266535	35.931885	0.398699
4756.865914	3.265044	167.285156	24.023437
4756.867915	3.266418	167.285156	24.023437
4756.869917	3.266627	35.932899	0.376500
4757.904448	3.266107	83.691406	-276.464844
4757.906450	3.266700	35.933697	0.388622
4758.948463	3.265538	169.335937	24.902344
4758.950465	3.266559	169.335937	24.902344
4758.952466	3.266807	35.934872	0.382998
4759.987006	3.265987	91.601562	-268.847656
4759.989007	3.266516	35.931671	0.389994
4761.029083	3.264319	171.093750	25.683594
4761.031084	3.266519	171.093750	25.683594
4761.033086	3.266854	35.935394	0.386765
4762.071121	3.266736	91.796875	-267.187500
4762.073123	3.267068	91.796875	-267.187500
4762.075123	3.267047	35.937523	0.386918
4763.115196	3.266190	173.730469	25.097656
4763.117197	3.266588	35.932472	0.392387
4764.151789	3.265882	79.980469	-280.078125
4764.153792	3.266513	79.980469	-280.078125
4764.155791	3.266639	35.933029	0.384968
4765.195817	3.264477	173.535156	22.363281
4765.197821	3.266479	173.535156	22.363281
4765.201820	3.266877	35.935642	0.396736
4766.233849	3.266609	93.457031	-261.425781
4766.235851	3.266711	35.933826	0.386901
4767.280379	3.265593	175.683594	21.679687
4767.282381	3.266542	175.683594	21.679687
4767.284381	3.266670	35.933369	0.390279
4768.315373	3.266014	84.472656	-272.949219
4768.317374	3.266780	84.472656	-272.949219
4768.319374	3.266852	35.935368	0.379926
4769.363473	3.265731	175.390625	19.824219
4769.365477	3.266388	35.930264	0.391917
4770.396033	3.265555	89.550781	-266.503906
4770.400033	3.267165	89.550781	-266.503906
4770.402034	3.267123	35.938354	0.385199
4771.448105	3.266265	175.683594	18.945312
4771.450108	3.266515	35.931664	0.594124
4772.478704	3.265989	91.015625	-264.941406
4772.480704	3.266655	35.933208	0.390799
4773.531244	3.266748	176.757812	20.019531
4773.533248	3.266874	35.935616	0.390417
4774.562190	3.265870	95.605469	-258.496094
4774.564193	3.266627	95.605469	-258.496094
4774.566194	3.266782	35.934597	0.380842
4775.612236	3.265895	174.121094	18.457031
4775.614236	3.266807	174.121094	18.457031
4775.616238	3.266936	35.936298	0.391080
4776.648256	3.266479	76.562500	-283.984375
4776.650259	3.266629	35.932915	0.380192
4777.698250	3.266665	175.976562	20.898437
4777.700251	3.266718	35.933899	0.439238
4778.728781	3.266537	88.085937	-267.773437
4778.730783	3.267031	35.937347	0.385505
4779.776808	3.266514	173.730469	20.898437
4779.780807	3.266700	173.730469	20.898437
4779.782811	3.266682	35.933498	0.395558
4780.812885	3.266374	93.066406	-263.867187
4780.814887	3.266548	35.932026	0.388887
4781.859451	3.266853	175.000000	24.316406
4781.861455	3.266942	35.936363	0.509298
4782.895494	3.265986	90.234375	-270.214844
4782.897494	3.266475	35.931229	0.389481
4783.939539	3.266598	174.023437	24.121094
4783.941540	3.266862	35.935482	0.390106
4784.978547	3.265910	88.183594	-272.753906
4784.980549	3.266486	35.931347	0.391504
4786.022569	3.265862	169.433594	20.117187
4786.024570	3.266480	35.931286	0.383252
4787.060523	3.265944	79.101562	-281.738281
4787.062524	3.266440	35.930843	0.393811
4788.104548	3.265232	169.921875	19.824219
4788.106549	3.266616	169.921875	19.824219
4788.108549	3.266824	35.935066	0.386453
4789.140642	3.266712	87.207031	-266.503906
4789.142643	3.266835	35.935181	0.403990
4790.191198	3.264701	169.042969	17.578125
4790.193201	3.266606	169.042969	17.578125
4790.195200	3.266846	35.935307	0.379777
4791.221260	3.266448	89.257812	-264.550781
4791.223261	3.266679	35.933464	0.403286
4792.272250	3.264940	172.460937	17.871094
4792.274252	3.266382	172.460937	17.871094
4792.276250	3.266531	35.931839	0.384359
4793.302788	3.265824	88.378906	-268.750000
4793.304788	3.266658	88.378906	-268.750000
4793.306789	3.266832	35.935146	0.395247
4794.356837	3.264538	172.753906	14.843750
4794.358839	3.266412	172.753906	14.843750
4794.360838	3.266393	35.930328	0.387129
4795.386914	3.266264	82.617187	-279.003906
4795.388918	3.266588	82.617187	-279.003906
4795.392916	3.266574	35.932312	0.395626
4796.440939	3.266009	172.753906	12.890625
4796.444938	3.266654	35.933189	0.385825
4797.467404	3.266057	85.058594	-274.414062
4797.469405	3.266571	35.932278	0.392327
4798.521478	3.264833	177.148437	14.941406
4798.523479	3.266666	177.148437	14.941406
4798.525481	3.266888	35.935768	0.394105
4799.553539	3.266644	76.074219	-285.058594
4799.555540	3.266915	35.936069	0.388309
4800.603525	3.265386	175.488281	15.136719
4800.605530	3.266749	175.488281	15.136719
4800.607528	3.266990	35.936893	0.398053
4801.635611	3.266314	84.472656	-271.679687
4801.637611	3.266842	35.935265	0.387813
4802.685677	3.266548	179.003906	18.750000
4802.687681	3.266815	35.934971	0.397129
4803.718211	3.264464	81.347656	-276.464844
4803.720214	3.266521	81.347656	-276.464844
4803.722212	3.266849	35.935333	0.388721
4804.766295	3.265877	176.074219	18.750000
4804.768296	3.266524	35.931763	0.397465
4805.802815	3.266425	88.867187	-267.285156
4805.804817	3.266801	35.934811	0.391850
4806.846831	3.264006	178.320312	20.996094
4806.850831	3.266917	178.320312	20.996094
4806.852832	3.266833	35.935165	0.398330
4807.887397	3.266379	90.820312	-265.234375
4807.889399	3.266624	35.932861	0.390501
4808.929984	3.265785	177.636719	21.191406
4808.931985	3.266797	177.636719	21.191406
4808.933987	3.267006	35.937061	0.395336
4809.968031	3.265488	80.761719	-280.664062
4809.970033	3.266841	80.761719	-280.664062
4809.974029	3.267176	35.938942	0.392122
4811.012093	3.264221	176.660156	20.507812
4811.014095	3.266373	176.660156	20.507812
4811.016096	3.266708	35.933792	0.396362
4812.050141	3.265796	88.671875	-269.433594
4812.052145	3.266844	88.671875	-269.433594
4812.054144	3.267076	35.937832	0.392388
4813.096197	3.265979	176.757812	20.312500
4813.098199	3.266429	35.930717	0.393538
4814.134229	3.266981	95.605469	-259.960937
4814.136230	3.267134	35.938469	0.391036
4815.181183	3.267092	178.710937	20.605469
4815.183185	3.267176	35.938942	0.395342
4816.213756	3.265839	93.457031	-262.207031
4816.215757	3.266715	93.457031	-262.207031
4816.217756	3.266849	35.935333	0.395373
4817.262306	3.266459	180.664062	21.191406
4817.264310	3.266769	35.934456	0.547821
4818.296348	3.265746	85.156250	-271.875000
4818.298349	3.266482	35.931301	0.390551
4819.346421	3.266426	177.441406	17.089844
4819.348423	3.266654	35.933197	0.713804
4820.378446	3.266526	89.062500	-265.527344
4820.380449	3.266874	35.935608	0.610800
4821.429023	3.264829	179.589844	16.210937
4821.431027	3.266364	179.589844	16.210937
4821.433025	3.266710	35.933811	0.397253
4822.461066	3.266420	86.816406	-268.847656
4822.463066	3.266738	35.934120	0.494367
4823.511616	3.264303	179.394531	14.257812
4823.513617	3.264439	179.394531	14.257812
4823.515617	3.266620	35.932816	0.395699
4824.541654	3.266295	89.941406	-266.699219
4824.543655	3.266592	35.932507	0.396625
4825.596246	3.266256	181.445312	14.257812
4825.598247	3.266807	35.934872	0.391808
4826.624275	3.266038	83.203125	-278.027344
4826.628275	3.266749	35.934235	0.393983
4827.678324	3.265387	179.882812	12.988281
4827.680327	3.265414	179.882812	12.988281
4827.684326	3.266613	35.932739	0.392892
4828.705336	3.266560	80.273437	-282.910156
4828.707338	3.266954	35.936493	0.452563
4829.761376	3.265267	176.464844	12.109375
4829.763377	3.266751	176.464844	12.109375
4829.765377	3.266927	35.936195	0.392465
4830.789385	3.266786	87.011719	-271.386719
4830.791385	3.266929	35.936222	0.402396
4831.843935	3.265399	176.074219	13.964844
4831.845937	3.266459	176.074219	13.964844
4831.847937	3.266711	35.933819	0.388278
4832.871964	3.266519	85.937500	-269.921875
4832.873965	3.266695	35.933651	0.758420
4833.924966	3.266230	177.148437	16.015625
4833.926969	3.266710	35.933811	0.391138
4834.955554	3.265992	76.757812	-281.054687
4834.959556	3.266488	35.931362	0.407531
4836.009634	3.266759	176.074219	16.503906
4836.011637	3.266804	35.934837	0.389513
4837.040195	3.266486	91.601562	-261.035156
4837.042197	3.266782	35.934597	0.412596
4838.088251	3.266606	174.707031	15.527344
4838.090253	3.267011	35.937122	0.443242
4839.124283	3.266634	89.550781	-267.480469
4839.128284	3.266969	35.936665	0.609217
4840.169226	3.264782	179.101562	18.652344
4840.171228	3.266356	179.101562	18.652344
4840.173229	3.266661	35.933266	0.389674
4841.209231	3.266732	79.199219	-285.742187
4841.211232	3.266906	35.935963	0.398315
4842.251252	3.265313	179.492187	18.066406
4842.253255	3.266434	179.492187	18.066406
4842.255254	3.266678	35.933453	0.394301
4843.289340	3.265559	82.226562	-281.250000
4843.291340	3.266520	82.226562	-281.250000
4843.293340	3.266677	35.933445	0.399167
4844.333850	3.266037	180.664062	18.261719
4844.337849	3.266649	35.933144	0.398851
4845.371889	3.265693	89.941406	-269.921875
4845.375890	3.266542	89.941406	-269.921875
4845.377891	3.266576	35.932339	0.398541
4846.415962	3.266390	183.789062	19.238281
4846.417964	3.266569	35.932259	0.791847
4847.454945	3.266009	84.472656	-275.585937
4847.456947	3.266513	35.931648	0.395215
4848.498969	3.265980	184.765625	18.457031
4848.500973	3.266892	184.765625	18.457031
4848.502971	3.266904	35.935944	0.406082
4849.535954	2.499862	83.105469	-276.464844
4849.537958	3.266719	83.105469	-276.464844
4849.539957	3.266970	35.936672	0.398234
4850.582014	3.265303	183.105469	16.503906
4850.584014	3.266428	183.105469	16.503906
4850.588013	3.266668	35.933350	0.404528
4851.618081	3.266420	92.773437	-262.500000
4851.620082	3.266452	35.930973	0.595643
4852.665035	3.265809	185.839844	17.382812
4852.667037	3.266726	185.839844	17.382812
4852.669037	3.266944	35.936382	0.406894
4853.703079	3.266453	82.128906	-277.050781
4853.705082	3.266666	35.933323	0.397082
4854.747119	3.266046	185.742187	17.187500
4854.749120	3.266503	35.931530	0.410569
4855.784071	3.266033	86.230469	-272.070312
4855.788077	3.266758	35.934341	0.396590
4856.830087	3.266817	185.449219	17.968750
4856.832090	3.267088	35.937965	0.406197
4857.866707	3.266252	88.574219	-269.628906
4857.868707	3.266760	35.934357	0.399549
4858.914720	3.266742	184.082031	17.480469
4858.916721	3.266836	35.935192	0.404905
4859.951331	3.266499	81.542969	-281.152344
4859.953331	3.266886	35.935741	0.397933
4860.993340	3.263799	179.980469	15.234375
4860.995340	3.266360	179.980469	15.234375
4860.997342	3.266707	35.933773	0.405799
4862.033460	3.266372	94.335937	-263.867187
4862.035464	3.266794	35.934731	0.403609
4863.077506	3.266729	183.300781	17.187500
4863.079507	3.267012	35.937134	0.814314
4864.115557	3.266193	85.449219	-275.292969
4864.117559	3.266783	35.934608	0.403260
4865.159635	3.264425	179.882812	14.453125
4865.161637	3.266624	179.882812	14.453125
4865.163636	3.266954	35.936493	0.396150
4866.197708	3.266117	80.859375	-279.589844
4866.199710	3.266741	35.934155	0.406055
4867.241774	3.265704	180.566406	14.355469
4867.243776	3.266647	180.566406	14.355469
4867.245773	3.266739	35.934128	0.396355
4868.282354	3.267015	81.542969	-274.707031
4868.284358	3.267069	35.937763	0.411763
4869.326404	3.266289	179.687500	12.988281
4869.328404	3.266711	35.933819	0.426857
4870.358951	3.265085	74.121094	-283.496094
4870.360951	3.266385	74.121094	-283.496094
4870.362952	3.266654	35.933189	0.414333
4871.411005	3.266289	177.636719	10.742187
4871.413005	3.266534	35.931870	0.394945
4872.441010	3.265467	84.765625	-268.750000
4872.443011	3.266402	84.765625	-268.750000
4872.445011	3.266558	35.932137	0.411466
4873.495050	3.266140	179.492187	10.351562
4873.497053	3.266695	35.933640	0.397867
4874.525133	3.266403	70.410156	-292.773437
4874.527134	3.266526	35.931782	0.409728
4875.577132	3.265101	180.078125	8.886719
4875.579133	3.266563	180.078125	8.886719
4875.581133	3.266804	35.934845	0.395831
4876.605145	3.266218	81.445312	-278.613281
4876.607146	3.266575	35.932327	0.562949
4877.659215	3.265790	185.058594	9.472656
4877.661218	3.266829	185.058594	9.472656
4877.663219	3.267062	35.937683	0.398617
4878.689242	3.266169	71.777344	-294.726562
4878.691245	3.266504	35.931541	0.405935
4879.743239	3.266783	182.226562	6.640625
4879.745241	3.266860	35.935459	0.402927
4880.771265	3.266394	78.710937	-284.179687
4880.773266	3.266766	35.934422	0.541209
4881.825327	3.266398	184.082031	6.933594
4881.829327	3.266909	35.935997	0.447165
4882.853369	3.265282	75.585937	-288.183594
4882.855371	3.266515	75.585937	-288.183594
4882.857371	3.266755	35.934307	0.403874
4883.905403	3.265810	188.671875	9.179687
4883.907405	3.266592	188.671875	9.179687
4883.909403	3.266760	35.934357	0.411480
4884.935999	3.265607	79.980469	-280.371094
4884.938000	3.266454	79.980469	-280.371094
4884.940001	3.266623	35.932854	0.404085
4885.988057	3.265906	188.085937	9.375000
4885.990060	3.266462	35.931080	0.407747
4887.020605	3.266066	76.855469	-283.886719
4887.022604	3.266686	35.933544	0.399924
4888.072648	3.266365	185.253906	8.789062
4888.074647	3.266556	35.932117	0.406070
4889.102668	3.266237	81.738281	-276.074219
4889.104670	3.266622	35.932842	0.405360
4890.152738	3.264701	186.132812	9.472656
4890.154740	3.266205	186.132812	9.472656
4890.156740	3.266446	35.930901	0.407722
4891.184727	3.262681	81.542969	-275.585937
4891.188726	3.266458	81.542969	-275.585937
4891.190728	3.266683	35.933510	0.404885
4892.234786	3.266123	188.476562	11.132812
4892.236787	3.266637	35.933010	0.445063
4893.268802	3.265440	78.710937	-280.175781
4893.270805	3.266289	78.710937	-280.175781
4893.272804	3.266408	35.930485	0.402662
4894.318900	3.266497	189.550781	11.328125
4894.320902	3.266623	35.932854	0.632658
4895.351460	3.266369	82.324219	-274.609375
4895.355461	3.266912	35.936035	0.516952
4896.397524	3.263150	189.550781	10.937500
4896.399527	3.266160	189.550781	10.937500
4896.403525	3.266591	35.932495	0.413757
4897.435516	3.266791	78.417969	-280.761719
4897.437517	3.267026	78.417969	-280.761719
4897.439517	3.267102	35.938126	0.402957
